GT170 GHz magnetic field and derivatives for I1,..,I5=61.56 66.45 113.43 108.09  [A]
------------------------------------------------------------- 
Cathode is located in z_cat=0.136 [m] 
Cavity  is located in z_cav=0.49967 [m] 
 z [m]   Bz [T]   dBz/dz [T/m]    d2Bz/dz2 [T/m2]   Bz(r=25mm)   Br(r=25mm)   dBz/dz(r=25mm)  dBz/dr(r=25mm)   
 -----   ------   ------------    ---------------   ----------   ----------   --------------  --------------   
 0.00000    0.24297      0.36003       -7.59886      0.24416      -0.00464       0.38262       0.09481   
 0.00100    0.24333      0.35236       -7.73996      0.24454      -0.00454       0.37497       0.09666   
 0.00200    0.24368      0.34455       -7.88105      0.24491      -0.00445       0.36718       0.09851   
 0.00300    0.24402      0.33660       -8.02204      0.24527      -0.00435       0.35923       0.10037   
 0.00400    0.24435      0.32851       -8.16284      0.24563      -0.00425       0.35112       0.10223   
 0.00500    0.24467      0.32027       -8.30332      0.24597      -0.00414       0.34286       0.10409   
 0.00600    0.24499      0.31190       -8.44340      0.24631      -0.00404       0.33444       0.10595   
 0.00700    0.24530      0.30339       -8.58296      0.24664      -0.00393       0.32586       0.10780   
 0.00800    0.24560      0.29474       -8.72188      0.24696      -0.00382       0.31712       0.10965   
 0.00900    0.24589      0.28594       -8.86004      0.24728      -0.00371       0.30823       0.11150   
 0.01000    0.24617      0.27702       -8.99732      0.24758      -0.00360       0.29918       0.11334   
 0.01100    0.24644      0.26795       -9.13359      0.24787      -0.00349       0.28997       0.11517   
 0.01200    0.24670      0.25875       -9.26872      0.24816      -0.00337       0.28061       0.11699   
 0.01300    0.24696      0.24941       -9.40258      0.24844      -0.00325       0.27109       0.11880   
 0.01400    0.24720      0.23994       -9.53502      0.24870      -0.00313       0.26142       0.12060   
 0.01500    0.24744      0.23034       -9.66589      0.24896      -0.00301       0.25159       0.12238   
 0.01600    0.24766      0.22061       -9.79505      0.24921      -0.00289       0.24161       0.12414   
 0.01700    0.24788      0.21075       -9.92235      0.24944      -0.00276       0.23147       0.12589   
 0.01800    0.24809      0.20077      -10.04762      0.24967      -0.00264       0.22119       0.12762   
 0.01900    0.24828      0.19066      -10.17069      0.24988      -0.00251       0.21075       0.12932   
 0.02000    0.24847      0.18043      -10.29141      0.25009      -0.00238       0.20016       0.13099   
 0.02100    0.24864      0.17008      -10.40960      0.25028      -0.00224       0.18943       0.13264   
 0.02200    0.24881      0.15961      -10.52508      0.25047      -0.00211       0.17856       0.13427   
 0.02300    0.24896      0.14903      -10.63767      0.25064      -0.00198       0.16754       0.13586   
 0.02400    0.24910      0.13834      -10.74719      0.25080      -0.00184       0.15638       0.13741   
 0.02500    0.24924      0.12754      -10.85343      0.25095      -0.00170       0.14508       0.13893   
 0.02600    0.24936      0.11663      -10.95622      0.25109      -0.00156       0.13365       0.14041   
 0.02700    0.24947      0.10562      -11.05534      0.25122      -0.00142       0.12208       0.14185   
 0.02800    0.24957      0.09452      -11.15058      0.25134      -0.00128       0.11039       0.14325   
 0.02900    0.24966      0.08332      -11.24175      0.25144      -0.00113       0.09857       0.14460   
 0.03000    0.24974      0.07204      -11.32863      0.25153      -0.00099       0.08662       0.14590   
 0.03100    0.24980      0.06067      -11.41099      0.25162      -0.00084       0.07456       0.14715   
 0.03200    0.24986      0.04922      -11.48862      0.25168      -0.00069       0.06238       0.14834   
 0.03300    0.24990      0.03769      -11.56129      0.25174      -0.00055       0.05008       0.14948   
 0.03400    0.24993      0.02610      -11.62876      0.25178      -0.00040       0.03769       0.15055   
 0.03500    0.24995      0.01444      -11.69079      0.25182      -0.00024       0.02518       0.15157   
 0.03600    0.24996      0.00272      -11.74716      0.25183      -0.00009       0.01259       0.15251   
 0.03700    0.24996     -0.00905      -11.79761      0.25184       0.00006      -0.00011       0.15339   
 0.03800    0.24994     -0.02088      -11.84189      0.25183       0.00021      -0.01288       0.15419   
 0.03900    0.24992     -0.03274      -11.87975      0.25181       0.00037      -0.02574       0.15492   
 0.04000    0.24988     -0.04463      -11.91094      0.25178       0.00052      -0.03868       0.15556   
 0.04100    0.24983     -0.05656      -11.93519      0.25174       0.00068      -0.05168       0.15613   
 0.04200    0.24977     -0.06850      -11.95223      0.25168       0.00084      -0.06475       0.15661   
 0.04300    0.24969     -0.08046      -11.96181      0.25161       0.00099      -0.07788       0.15699   
 0.04400    0.24961     -0.09242      -11.96365      0.25152       0.00115      -0.09105       0.15729   
 0.04500    0.24951     -0.10438      -11.95747      0.25143       0.00131      -0.10427       0.15749   
 0.04600    0.24940     -0.11633      -11.94300      0.25131       0.00147      -0.11752       0.15758   
 0.04700    0.24927     -0.12827      -11.91995      0.25119       0.00162      -0.13079       0.15758   
 0.04800    0.24914     -0.14017      -11.88804      0.25105       0.00178      -0.14409       0.15746   
 0.04900    0.24899     -0.15204      -11.84699      0.25090       0.00194      -0.15739       0.15724   
 0.05000    0.24884     -0.16386      -11.79649      0.25074       0.00209      -0.17069       0.15690   
 0.05100    0.24867     -0.17563      -11.73627      0.25056       0.00225      -0.18399       0.15644   
 0.05200    0.24848     -0.18733      -11.66603      0.25037       0.00241      -0.19727       0.15585   
 0.05300    0.24829     -0.19896      -11.58547      0.25017       0.00256      -0.21052       0.15514   
 0.05400    0.24809     -0.21050      -11.49429      0.24995       0.00272      -0.22373       0.15430   
 0.05500    0.24787     -0.22194      -11.39219      0.24972       0.00287      -0.23690       0.15332   
 0.05600    0.24764     -0.23328      -11.27887      0.24948       0.00302      -0.25000       0.15221   
 0.05700    0.24740     -0.24450      -11.15403      0.24922       0.00318      -0.26304       0.15095   
 0.05800    0.24715     -0.25558      -11.01736      0.24895       0.00333      -0.27599       0.14955   
 0.05900    0.24689     -0.26653      -10.86856      0.24867       0.00348      -0.28885       0.14799   
 0.06000    0.24662     -0.27732      -10.70732      0.24837       0.00362      -0.30160       0.14628   
 0.06100    0.24634     -0.28794      -10.53333      0.24806       0.00377      -0.31424       0.14441   
 0.06200    0.24605     -0.29838      -10.34630      0.24774       0.00391      -0.32674       0.14238   
 0.06300    0.24574     -0.30863      -10.14590      0.24741       0.00405      -0.33910       0.14018   
 0.06400    0.24543     -0.31867       -9.93184      0.24707       0.00419      -0.35130       0.13781   
 0.06500    0.24510     -0.32848       -9.70381      0.24671       0.00433      -0.36333       0.13526   
 0.06600    0.24477     -0.33807       -9.46151      0.24634       0.00446      -0.37518       0.13254   
 0.06700    0.24443     -0.34740       -9.20462      0.24596       0.00459      -0.38682       0.12963   
 0.06800    0.24408     -0.35647       -8.93286      0.24557       0.00472      -0.39825       0.12653   
 0.06900    0.24372     -0.36526       -8.64590      0.24516       0.00485      -0.40945       0.12324   
 0.07000    0.24335     -0.37376       -8.34346      0.24475       0.00497      -0.42040       0.11976   
 0.07100    0.24297     -0.38194       -8.02523      0.24432       0.00509      -0.43109       0.11608   
 0.07200    0.24258     -0.38980       -7.69093      0.24388       0.00520      -0.44150       0.11219   
 0.07300    0.24219     -0.39732       -7.34025      0.24344       0.00531      -0.45161       0.10810   
 0.07400    0.24179     -0.40448       -6.97290      0.24298       0.00542      -0.46142       0.10380   
 0.07500    0.24138     -0.41126       -6.58859      0.24251       0.00552      -0.47089       0.09928   
 0.07600    0.24097     -0.41765       -6.18705      0.24204       0.00561      -0.48002       0.09454   
 0.07700    0.24054     -0.42363       -5.76798      0.24155       0.00571      -0.48878       0.08958   
 0.07800    0.24012     -0.42918       -5.33112      0.24106       0.00579      -0.49716       0.08440   
 0.07900    0.23969     -0.43429       -4.87617      0.24056       0.00587      -0.50513       0.07898   
 0.08000    0.23925     -0.43893       -4.40288      0.24005       0.00595      -0.51269       0.07333   
 0.08100    0.23881     -0.44309       -3.91098      0.23954       0.00602      -0.51980       0.06744   
 0.08200    0.23836     -0.44674       -3.40020      0.23901       0.00609      -0.52646       0.06131   
 0.08300    0.23792     -0.44988       -2.87028      0.23848       0.00614      -0.53264       0.05494   
 0.08400    0.23746     -0.45248       -2.32098      0.23795       0.00620      -0.53832       0.04832   
 0.08500    0.23701     -0.45451       -1.75205      0.23741       0.00624      -0.54348       0.04145   
 0.08600    0.23656     -0.45597       -1.16325      0.23686       0.00628      -0.54809       0.03433   
 0.08700    0.23610     -0.45683       -0.55433      0.23631       0.00631      -0.55215       0.02695   
 0.08800    0.23564     -0.45708        0.07493      0.23576       0.00633      -0.55563       0.01931   
 0.08900    0.23518     -0.45668        0.72475      0.23520       0.00635      -0.55850       0.01140   
 0.09000    0.23473     -0.45562        1.39536      0.23464       0.00635      -0.56074       0.00323   
 0.09100    0.23427     -0.45388        2.08697      0.23408       0.00635      -0.56234      -0.00521   
 0.09200    0.23382     -0.45144        2.79978      0.23352       0.00634      -0.56327      -0.01392   
 0.09300    0.23337     -0.44827        3.53399      0.23295       0.00633      -0.56351      -0.02291   
 0.09400    0.23292     -0.44436        4.28980      0.23239       0.00630      -0.56303      -0.03217   
 0.09500    0.23248     -0.43969        5.06738      0.23183       0.00626      -0.56181      -0.04171   
 0.09600    0.23205     -0.43422        5.86693      0.23126       0.00622      -0.55984      -0.05154   
 0.09700    0.23161     -0.42795        6.68860      0.23071       0.00616      -0.55708      -0.06164   
 0.09800    0.23119     -0.42084        7.53257      0.23015       0.00609      -0.55351      -0.07204   
 0.09900    0.23077     -0.41287        8.39899      0.22960       0.00601      -0.54912      -0.08272   
 0.10000    0.23036     -0.40403        9.28801      0.22905       0.00593      -0.54387      -0.09369   
 0.10100    0.22997     -0.39429       10.19976      0.22851       0.00583      -0.53774      -0.10496   
 0.10200    0.22958     -0.38362       11.13439      0.22798       0.00572      -0.53070      -0.11651   
 0.10300    0.22920     -0.37201       12.09202      0.22745       0.00559      -0.52274      -0.12837   
 0.10400    0.22883     -0.35943       13.07277      0.22693       0.00546      -0.51383      -0.14052   
 0.10500    0.22848     -0.34586       14.07674      0.22642       0.00531      -0.50395      -0.15297   
 0.10600    0.22814     -0.33127       15.10404      0.22593       0.00515      -0.49306      -0.16572   
 0.10700    0.22782     -0.31564       16.15475      0.22544       0.00498      -0.48115      -0.17877   
 0.10800    0.22751     -0.29895       17.22897      0.22496       0.00480      -0.46819      -0.19212   
 0.10900    0.22722     -0.28118       18.32678      0.22450       0.00460      -0.45416      -0.20577   
 0.11000    0.22695     -0.26229       19.44823      0.22406       0.00438      -0.43903      -0.21973   
 0.11100    0.22670     -0.24227       20.59339      0.22362       0.00416      -0.42277      -0.23400   
 0.11200    0.22646     -0.22110       21.76231      0.22321       0.00392      -0.40536      -0.24856   
 0.11300    0.22625     -0.19874       22.95504      0.22281       0.00366      -0.38678      -0.26344   
 0.11400    0.22607     -0.17518       24.17160      0.22244       0.00339      -0.36700      -0.27862   
 0.11500    0.22590     -0.15039       25.41203      0.22208       0.00310      -0.34599      -0.29411   
 0.11600    0.22577     -0.12435       26.67633      0.22175       0.00280      -0.32373      -0.30990   
 0.11700    0.22566     -0.09703       27.96453      0.22143       0.00248      -0.30020      -0.32601   
 0.11800    0.22557     -0.06841       29.27661      0.22115       0.00215      -0.27537      -0.34242   
 0.11900    0.22552     -0.03847       30.61257      0.22088       0.00180      -0.24921      -0.35913   
 0.12000    0.22550     -0.00718       31.97240      0.22065       0.00143      -0.22170      -0.37615   
 0.12100    0.22551      0.02548       33.35605      0.22044       0.00105      -0.19281      -0.39348   
 0.12200    0.22555      0.05954       34.76351      0.22026       0.00064      -0.16252      -0.41112   
 0.12300    0.22563      0.09502       36.19472      0.22012       0.00022      -0.13081      -0.42906   
 0.12400    0.22574      0.13194       37.64964      0.22000      -0.00022      -0.09764      -0.44731   
 0.12500    0.22589      0.17033       39.12819      0.21992      -0.00067      -0.06300      -0.46586   
 0.12600    0.22608      0.21020       40.63031      0.21988      -0.00115      -0.02685      -0.48471   
 0.12700    0.22631      0.25160       42.15593      0.21987      -0.00164       0.01082      -0.50387   
 0.12800    0.22658      0.29452       43.70494      0.21990      -0.00215       0.05005      -0.52332   
 0.12900    0.22690      0.33901       45.27725      0.21997      -0.00269       0.09085      -0.54308   
 0.13000    0.22726      0.38509       46.87275      0.22008      -0.00324       0.13325      -0.56314   
 0.13100    0.22767      0.43277       48.49133      0.22024      -0.00381       0.17728      -0.58349   
 0.13200    0.22813      0.48208       50.13286      0.22044      -0.00441       0.22295      -0.60414   
 0.13300    0.22864      0.53304       51.79720      0.22068      -0.00502       0.27030      -0.62508   
 0.13400    0.22919      0.58568       53.48421      0.22098      -0.00566       0.31935      -0.64632   
 0.13500    0.22981      0.64002       55.19372      0.22132      -0.00632       0.37013      -0.66785   
 0.13600    0.23048      0.69607       56.92559      0.22172      -0.00699       0.42265      -0.68966   
 0.13700    0.23120      0.75387       58.67962      0.22217      -0.00769       0.47694      -0.71177   
 0.13800    0.23198      0.81344       60.45564      0.22267      -0.00842       0.53302      -0.73415   
 0.13900    0.23283      0.87479       62.25345      0.22323      -0.00916       0.59092      -0.75682   
 0.14000    0.23373      0.93795       64.07283      0.22385      -0.00993       0.65066      -0.77977   
 0.14100    0.23470      1.00295       65.91358      0.22454      -0.01072       0.71227      -0.80300   
 0.14200    0.23574      1.06979       67.77546      0.22528      -0.01154       0.77576      -0.82650   
 0.14300    0.23684      1.13850       69.65824      0.22609      -0.01238       0.84116      -0.85028   
 0.14400    0.23802      1.20911       71.56166      0.22696      -0.01324       0.90849      -0.87432   
 0.14500    0.23926      1.28163       73.48547      0.22791      -0.01412       0.97778      -0.89863   
 0.14600    0.24058      1.35609       75.42937      0.22892      -0.01504       1.04904      -0.92320   
 0.14700    0.24198      1.43250       77.39310      0.23000      -0.01597       1.12230      -0.94803   
 0.14800    0.24345      1.51088       79.37634      0.23116      -0.01693       1.19758      -0.97312   
 0.14900    0.24500      1.59126       81.37880      0.23240      -0.01792       1.27490      -0.99846   
 0.15000    0.24663      1.67365       83.40013      0.23371      -0.01893       1.35428      -1.02405   
 0.15100    0.24835      1.75806       85.44001      0.23511      -0.01997       1.43575      -1.04988   
 0.15200    0.25015      1.84453       87.49808      0.23659      -0.02103       1.51932      -1.07596   
 0.15300    0.25204      1.93307       89.57398      0.23815      -0.02212       1.60501      -1.10227   
 0.15400    0.25401      2.02369       91.66733      0.23980      -0.02323       1.69284      -1.12881   
 0.15500    0.25608      2.11641       93.77773      0.24153      -0.02438       1.78284      -1.15558   
 0.15600    0.25825      2.21125       95.90477      0.24336      -0.02554       1.87502      -1.18258   
 0.15700    0.26051      2.30822       98.04802      0.24529      -0.02674       1.96940      -1.20979   
 0.15800    0.26287      2.40735      100.20706      0.24730      -0.02796       2.06599      -1.23721   
 0.15900    0.26532      2.50864      102.38142      0.24942      -0.02922       2.16483      -1.26484   
 0.16000    0.26788      2.61212      104.57062      0.25163      -0.03049       2.26592      -1.29268   
 0.16100    0.27055      2.71779      106.77419      0.25395      -0.03180       2.36928      -1.32071   
 0.16200    0.27332      2.82567      108.99161      0.25637      -0.03314       2.47493      -1.34893   
 0.16300    0.27620      2.93577      111.22236      0.25890      -0.03450       2.58289      -1.37733   
 0.16400    0.27919      3.04812      113.46590      0.26154      -0.03589       2.69316      -1.40591   
 0.16500    0.28230      3.16271      115.72167      0.26429      -0.03731       2.80578      -1.43466   
 0.16600    0.28552      3.27957      117.98910      0.26715      -0.03876       2.92074      -1.46358   
 0.16700    0.28886      3.39869      120.26758      0.27013      -0.04024       3.03807      -1.49265   
 0.16800    0.29232      3.52010      122.55651      0.27323      -0.04174       3.15778      -1.52188   
 0.16900    0.29590      3.64381      124.85525      0.27645      -0.04328       3.27988      -1.55124   
 0.17000    0.29960      3.76982      127.16314      0.27979      -0.04485       3.40439      -1.58074   
 0.17100    0.30344      3.89814      129.47952      0.28326      -0.04644       3.53131      -1.61036   
 0.17200    0.30740      4.02878      131.80369      0.28685      -0.04807       3.66066      -1.64011   
 0.17300    0.31150      4.16175      134.13494      0.29058      -0.04972       3.79246      -1.66996   
 0.17400    0.31573      4.29705      136.47253      0.29444      -0.05141       3.92670      -1.69991   
 0.17500    0.32009      4.43469      138.81572      0.29843      -0.05312       4.06340      -1.72995   
 0.17600    0.32460      4.57468      141.16372      0.30257      -0.05487       4.20257      -1.76008   
 0.17700    0.32924      4.71702      143.51575      0.30684      -0.05664       4.34421      -1.79027   
 0.17800    0.33403      4.86172      145.87098      0.31126      -0.05845       4.48834      -1.82053   
 0.17900    0.33897      5.00877      148.22859      0.31582      -0.06028       4.63495      -1.85083   
 0.18000    0.34405      5.15817      150.58770      0.32053      -0.06215       4.78406      -1.88118   
 0.18100    0.34928      5.30994      152.94745      0.32539      -0.06405       4.93567      -1.91156   
 0.18200    0.35467      5.46407      155.30694      0.33040      -0.06597       5.08977      -1.94195   
 0.18300    0.36021      5.62056      157.66523      0.33557      -0.06793       5.24639      -1.97235   
 0.18400    0.36591      5.77940      160.02140      0.34089      -0.06992       5.40551      -2.00275   
 0.18500    0.37177      5.94060      162.37448      0.34638      -0.07194       5.56714      -2.03313   
 0.18600    0.37779      6.10415      164.72348      0.35203      -0.07398       5.73128      -2.06348   
 0.18700    0.38398      6.27004      167.06741      0.35784      -0.07606       5.89792      -2.09378   
 0.18800    0.39033      6.43828      169.40525      0.36382      -0.07817       6.06706      -2.12403   
 0.18900    0.39686      6.60885      171.73594      0.36998      -0.08031       6.23871      -2.15421   
 0.19000    0.40355      6.78175      174.05843      0.37630      -0.08248       6.41286      -2.18431   
 0.19100    0.41042      6.95696      176.37164      0.38280      -0.08468       6.58949      -2.21431   
 0.19200    0.41747      7.13449      178.67446      0.38948      -0.08691       6.76861      -2.24420   
 0.19300    0.42469      7.31431      180.96578      0.39634      -0.08917       6.95021      -2.27396   
 0.19400    0.43210      7.49642      183.24447      0.40338      -0.09146       7.13427      -2.30358   
 0.19500    0.43969      7.68079      185.50937      0.41061      -0.09378       7.32079      -2.33305   
 0.19600    0.44746      7.86743      187.75931      0.41803      -0.09612       7.50975      -2.36235   
 0.19700    0.45542      8.05631      189.99310      0.42563      -0.09850       7.70115      -2.39146   
 0.19800    0.46357      8.24741      192.20955      0.43343      -0.10091       7.89497      -2.42037   
 0.19900    0.47192      8.44072      194.40744      0.44142      -0.10334       8.09118      -2.44907   
 0.20000    0.48045      8.63622      196.58554      0.44961      -0.10580       8.28979      -2.47753   
 0.20100    0.48919      8.83388      198.74261      0.45800      -0.10830       8.49076      -2.50574   
 0.20200    0.49812      9.03370      200.87739      0.46659      -0.11082       8.69408      -2.53368   
 0.20300    0.50726      9.23563      202.98862      0.47539      -0.11336       8.89973      -2.56134   
 0.20400    0.51660      9.43966      205.07502      0.48439      -0.11594       9.10768      -2.58871   
 0.20500    0.52614      9.64577      207.13529      0.49361      -0.11854       9.31792      -2.61575   
 0.20600    0.53589      9.85393      209.16815      0.50303      -0.12117       9.53041      -2.64246   
 0.20700    0.54585     10.06410      211.17229      0.51267      -0.12382       9.74513      -2.66882   
 0.20800    0.55602     10.27626      213.14639      0.52252      -0.12651       9.96205      -2.69481   
 0.20900    0.56640     10.49038      215.08915      0.53259      -0.12921      10.18114      -2.72041   
 0.21000    0.57700     10.70643      216.99924      0.54288      -0.13195      10.40238      -2.74561   
 0.21100    0.58781     10.92437      218.87532      0.55340      -0.13471      10.62572      -2.77039   
 0.21200    0.59885     11.14417      220.71608      0.56414      -0.13749      10.85113      -2.79473   
 0.21300    0.61010     11.36579      222.52018      0.57510      -0.14029      11.07858      -2.81861   
 0.21400    0.62158     11.58919      224.28628      0.58629      -0.14312      11.30803      -2.84202   
 0.21500    0.63328     11.81435      226.01307      0.59772      -0.14598      11.53944      -2.86493   
 0.21600    0.64521     12.04121      227.69920      0.60937      -0.14885      11.77278      -2.88733   
 0.21700    0.65736     12.26973      229.34336      0.62126      -0.15175      12.00799      -2.90921   
 0.21800    0.66975     12.49988      230.94421      0.63339      -0.15467      12.24504      -2.93054   
 0.21900    0.68236     12.73161      232.50045      0.64576      -0.15761      12.48389      -2.95130   
 0.22000    0.69521     12.96487      234.01075      0.65836      -0.16058      12.72447      -2.97148   
 0.22100    0.70829     13.19961      235.47382      0.67120      -0.16356      12.96676      -2.99107   
 0.22200    0.72161     13.43580      236.88836      0.68429      -0.16656      13.21069      -3.01004   
 0.22300    0.73517     13.67337      238.25309      0.69763      -0.16958      13.45622      -3.02837   
 0.22400    0.74896     13.91229      239.56672      0.71121      -0.17261      13.70330      -3.04606   
 0.22500    0.76299     14.15249      240.82801      0.72503      -0.17567      13.95186      -3.06307   
 0.22600    0.77726     14.39392      242.03570      0.73911      -0.17874      14.20187      -3.07940   
 0.22700    0.79178     14.63654      243.18857      0.75344      -0.18183      14.45325      -3.09503   
 0.22800    0.80654     14.88028      244.28538      0.76802      -0.18493      14.70595      -3.10995   
 0.22900    0.82154     15.12509      245.32495      0.78285      -0.18805      14.95992      -3.12412   
 0.23000    0.83679     15.37091      246.30609      0.79794      -0.19118      15.21508      -3.13755   
 0.23100    0.85228     15.61768      247.22764      0.81328      -0.19432      15.47139      -3.15022   
 0.23200    0.86802     15.86535      248.08846      0.82888      -0.19748      15.72876      -3.16210   
 0.23300    0.88401     16.11384      248.88743      0.84474      -0.20065      15.98715      -3.17319   
 0.23400    0.90025     16.36310      249.62346      0.86086      -0.20382      16.24649      -3.18346   
 0.23500    0.91674     16.61307      250.29547      0.87723      -0.20701      16.50670      -3.19291   
 0.23600    0.93348     16.86367      250.90242      0.89387      -0.21021      16.76771      -3.20152   
 0.23700    0.95047     17.11485      251.44329      0.91077      -0.21341      17.02947      -3.20928   
 0.23800    0.96771     17.36654      251.91709      0.92793      -0.21663      17.29189      -3.21617   
 0.23900    0.98520     17.61866      252.32285      0.94535      -0.21985      17.55491      -3.22218   
 0.24000    1.00295     17.87116      252.65964      0.96304      -0.22307      17.81845      -3.22730   
 0.24100    1.02094     18.12396      252.92656      0.98099      -0.22630      18.08243      -3.23151   
 0.24200    1.03919     18.37699      253.12273      0.99920      -0.22953      18.34679      -3.23481   
 0.24300    1.05770     18.63018      253.24732      1.01768      -0.23277      18.61144      -3.23718   
 0.24400    1.07645     18.88346      253.29953      1.03643      -0.23601      18.87631      -3.23860   
 0.24500    1.09546     19.13675      253.27859      1.05543      -0.23925      19.14132      -3.23908   
 0.24600    1.11473     19.38999      253.18376      1.07471      -0.24249      19.40638      -3.23860   
 0.24700    1.13424     19.64310      253.01434      1.09425      -0.24572      19.67143      -3.23715   
 0.24800    1.15401     19.89599      252.76969      1.11405      -0.24896      19.93637      -3.23472   
 0.24900    1.17404     20.14861      252.44917      1.13412      -0.25219      20.20114      -3.23130   
 0.25000    1.19431     20.40087      252.05220      1.15445      -0.25542      20.46563      -3.22689   
 0.25100    1.21484     20.65269      251.57825      1.17505      -0.25865      20.72978      -3.22147   
 0.25200    1.23562     20.90400      251.02682      1.19591      -0.26187      20.99349      -3.21505   
 0.25300    1.25665     21.15472      250.39744      1.21704      -0.26508      21.25669      -3.20760   
 0.25400    1.27793     21.40477      249.68970      1.23843      -0.26828      21.51928      -3.19914   
 0.25500    1.29945     21.65407      248.90323      1.26008      -0.27147      21.78118      -3.18965   
 0.25600    1.32123     21.90255      248.03770      1.28199      -0.27466      22.04231      -3.17912   
 0.25700    1.34326     22.15012      247.09283      1.30416      -0.27783      22.30258      -3.16756   
 0.25800    1.36553     22.39671      246.06837      1.32659      -0.28099      22.56191      -3.15496   
 0.25900    1.38805     22.64223      244.96413      1.34928      -0.28414      22.82020      -3.14131   
 0.26000    1.41082     22.88661      243.77997      1.37223      -0.28728      23.07736      -3.12662   
 0.26100    1.43383     23.12976      242.51579      1.39544      -0.29039      23.33332      -3.11088   
 0.26200    1.45708     23.37161      241.17153      1.41890      -0.29350      23.58798      -3.09409   
 0.26300    1.48057     23.61208      239.74718      1.44261      -0.29658      23.84126      -3.07626   
 0.26400    1.50430     23.85108      238.24280      1.46658      -0.29965      24.09306      -3.05737   
 0.26500    1.52827     24.08854      236.65848      1.49080      -0.30270      24.34331      -3.03744   
 0.26600    1.55248     24.32437      234.99434      1.51527      -0.30572      24.59190      -3.01646   
 0.26700    1.57692     24.55850      233.25059      1.53998      -0.30873      24.83876      -2.99443   
 0.26800    1.60159     24.79084      231.42747      1.56494      -0.31171      25.08380      -2.97136   
 0.26900    1.62650     25.02133      229.52526      1.59015      -0.31467      25.32692      -2.94726   
 0.27000    1.65164     25.24987      227.54430      1.61560      -0.31761      25.56805      -2.92212   
 0.27100    1.67700     25.47639      225.48498      1.64129      -0.32052      25.80709      -2.89595   
 0.27200    1.70259     25.70081      223.34775      1.66721      -0.32340      26.04396      -2.86876   
 0.27300    1.72840     25.92306      221.13308      1.69337      -0.32625      26.27858      -2.84054   
 0.27400    1.75443     26.14305      218.84152      1.71977      -0.32908      26.51085      -2.81132   
 0.27500    1.78068     26.36072      216.47366      1.74639      -0.33188      26.74070      -2.78110   
 0.27600    1.80715     26.57598      214.03013      1.77325      -0.33464      26.96803      -2.74987   
 0.27700    1.83384     26.78875      211.51164      1.80033      -0.33737      27.19278      -2.71766   
 0.27800    1.86073     26.99897      208.91890      1.82763      -0.34008      27.41484      -2.68448   
 0.27900    1.88783     27.20657      206.25272      1.85516      -0.34274      27.63415      -2.65032   
 0.28000    1.91514     27.41146      203.51393      1.88290      -0.34538      27.85062      -2.61521   
 0.28100    1.94265     27.61357      200.70340      1.91086      -0.34797      28.06416      -2.57916   
 0.28200    1.97037     27.81284      197.82209      1.93903      -0.35053      28.27471      -2.54217   
 0.28300    1.99828     28.00919      194.87096      1.96741      -0.35306      28.48219      -2.50426   
 0.28400    2.02639     28.20256      191.85104      1.99599      -0.35554      28.68651      -2.46545   
 0.28500    2.05468     28.39287      188.76341      2.02478      -0.35799      28.88760      -2.42574   
 0.28600    2.08317     28.58006      185.60918      2.05376      -0.36039      29.08538      -2.38516   
 0.28700    2.11184     28.76407      182.38952      2.08295      -0.36276      29.27979      -2.34371   
 0.28800    2.14070     28.94482      179.10565      2.11232      -0.36508      29.47075      -2.30142   
 0.28900    2.16973     29.12226      175.75880      2.14189      -0.36736      29.65819      -2.25829   
 0.29000    2.19894     29.29632      172.35028      2.17164      -0.36960      29.84204      -2.21436   
 0.29100    2.22832     29.46694      168.88141      2.20157      -0.37179      30.02223      -2.16962   
 0.29200    2.25787     29.63406      165.35359      2.23168      -0.37394      30.19870      -2.12411   
 0.29300    2.28759     29.79763      161.76821      2.26197      -0.37604      30.37138      -2.07785   
 0.29400    2.31747     29.95758      158.12674      2.29242      -0.37809      30.54021      -2.03084   
 0.29500    2.34750     30.11386      154.43067      2.32305      -0.38010      30.70513      -1.98312   
 0.29600    2.37769     30.26642      150.68152      2.35383      -0.38206      30.86607      -1.93469   
 0.29700    2.40804     30.41521      146.88085      2.38478      -0.38397      31.02299      -1.88559   
 0.29800    2.43852     30.56017      143.03027      2.41588      -0.38583      31.17582      -1.83583   
 0.29900    2.46915     30.70125      139.13139      2.44713      -0.38764      31.32450      -1.78544   
 0.30000    2.49992     30.83841      135.18588      2.47852      -0.38940      31.46900      -1.73444   
 0.30100    2.53083     30.97161      131.19542      2.51006      -0.39111      31.60925      -1.68284   
 0.30200    2.56187     31.10079      127.16172      2.54174      -0.39276      31.74521      -1.63068   
 0.30300    2.59303     31.22592      123.08652      2.57355      -0.39437      31.87683      -1.57798   
 0.30400    2.62432     31.34695      118.97160      2.60549      -0.39592      32.00407      -1.52475   
 0.30500    2.65572     31.46385      114.81873      2.63756      -0.39742      32.12689      -1.47103   
 0.30600    2.68724     31.57658      110.62973      2.66975      -0.39886      32.24523      -1.41684   
 0.30700    2.71887     31.68510      106.40642      2.70205      -0.40025      32.35908      -1.36220   
 0.30800    2.75061     31.78938      102.15065      2.73446      -0.40159      32.46838      -1.30714   
 0.30900    2.78245     31.88939       97.86428      2.76698      -0.40287      32.57311      -1.25168   
 0.31000    2.81439     31.98510       93.54919      2.79961      -0.40409      32.67323      -1.19585   
 0.31100    2.84642     32.07648       89.20726      2.83233      -0.40526      32.76872      -1.13967   
 0.31200    2.87854     32.16350       84.84040      2.86514      -0.40637      32.85954      -1.08318   
 0.31300    2.91075     32.24615       80.45051      2.89805      -0.40742      32.94568      -1.02638   
 0.31400    2.94303     32.32440       76.03952      2.93103      -0.40842      33.02710      -0.96932   
 0.31500    2.97539     32.39822       71.60933      2.96410      -0.40936      33.10379      -0.91202   
 0.31600    3.00783     32.46761       67.16188      2.99724      -0.41025      33.17573      -0.85450   
 0.31700    3.04033     32.53254       62.69909      3.03045      -0.41107      33.24290      -0.79678   
 0.31800    3.07289     32.59300       58.22289      3.06372      -0.41184      33.30529      -0.73891   
 0.31900    3.10551     32.64898       53.73520      3.09706      -0.41255      33.36288      -0.68089   
 0.32000    3.13819     32.70047       49.23794      3.13045      -0.41320      33.41567      -0.62275   
 0.32100    3.17091     32.74746       44.73303      3.16389      -0.41379      33.46365      -0.56453   
 0.32200    3.20368     32.78993       40.22238      3.19737      -0.41433      33.50682      -0.50625   
 0.32300    3.23649     32.82790       35.70787      3.23090      -0.41481      33.54516      -0.44793   
 0.32400    3.26933     32.86135       31.19141      3.26446      -0.41523      33.57869      -0.38960   
 0.32500    3.30221     32.89028       26.67487      3.29805      -0.41559      33.60739      -0.33128   
 0.32600    3.33511     32.91470       22.16010      3.33167      -0.41589      33.63128      -0.27301   
 0.32700    3.36804     32.93460       17.64895      3.36532      -0.41613      33.65036      -0.21479   
 0.32800    3.40098     32.95000       13.14325      3.39897      -0.41632      33.66464      -0.15666   
 0.32900    3.43394     32.96089        8.64481      3.43264      -0.41645      33.67412      -0.09865   
 0.33000    3.46690     32.96729        4.15542      3.46632      -0.41652      33.67882      -0.04077   
 0.33100    3.49987     32.96921       -0.32316      3.50000      -0.41653      33.67876       0.01695   
 0.33200    3.53284     32.96665       -4.78920      3.53368      -0.41648      33.67394       0.07449   
 0.33300    3.56580     32.95963       -9.24096      3.56735      -0.41638      33.66439       0.13182   
 0.33400    3.59876     32.94817      -13.67676      3.60100      -0.41622      33.65013       0.18893   
 0.33500    3.63170     32.93229      -18.09494      3.63464      -0.41600      33.63117       0.24578   
 0.33600    3.66462     32.91199      -22.49387      3.66826      -0.41573      33.60755       0.30237   
 0.33700    3.69752     32.88731      -26.87194      3.70186      -0.41540      33.57928       0.35865   
 0.33800    3.73039     32.85825      -31.22758      3.73542      -0.41501      33.54639       0.41463   
 0.33900    3.76323     32.82486      -35.55925      3.76895      -0.41457      33.50892       0.47027   
 0.34000    3.79604     32.78714      -39.86545      3.80244      -0.41407      33.46689       0.52556   
 0.34100    3.82881     32.74514      -44.14471      3.83588      -0.41352      33.42033       0.58048   
 0.34200    3.86153     32.69886      -48.39559      3.86928      -0.41291      33.36928       0.63500   
 0.34300    3.89420     32.64836      -52.61669      3.90262      -0.41225      33.31377       0.68911   
 0.34400    3.92682     32.59364      -56.80666      3.93590      -0.41153      33.25385       0.74280   
 0.34500    3.95939     32.53475      -60.96417      3.96912      -0.41076      33.18954       0.79603   
 0.34600    3.99189     32.47172      -65.08794      4.00228      -0.40994      33.12089       0.84881   
 0.34700    4.02433     32.40459      -69.17673      4.03537      -0.40906      33.04794       0.90111   
 0.34800    4.05670     32.33338      -73.22932      4.06838      -0.40814      32.97073       0.95291   
 0.34900    4.08900     32.25814      -77.24457      4.10131      -0.40716      32.88931       1.00421   
 0.35000    4.12122     32.17891      -81.22134      4.13415      -0.40613      32.80371       1.05498   
 0.35100    4.15335     32.09571      -85.15856      4.16691      -0.40505      32.71399       1.10522   
 0.35200    4.18541     32.00860      -89.05520      4.19958      -0.40392      32.62020       1.15491   
 0.35300    4.21737     31.91762      -92.91025      4.23215      -0.40274      32.52237       1.20403   
 0.35400    4.24924     31.82280      -96.72276      4.26462      -0.40151      32.42056       1.25258   
 0.35500    4.28101     31.72419     -100.49182      4.29699      -0.40023      32.31483       1.30054   
 0.35600    4.31269     31.62183     -104.21657      4.32925      -0.39891      32.20521       1.34790   
 0.35700    4.34426     31.51577     -107.89619      4.36140      -0.39754      32.09177       1.39466   
 0.35800    4.37572     31.40605     -111.52988      4.39343      -0.39612      31.97455       1.44080   
 0.35900    4.40707     31.29272     -115.11692      4.42535      -0.39466      31.85361       1.48631   
 0.36000    4.43830     31.17583     -118.65660      4.45714      -0.39315      31.72900       1.53119   
 0.36100    4.46942     31.05543     -122.14828      4.48880      -0.39159      31.60078       1.57542   
 0.36200    4.50041     30.93155     -125.59135      4.52034      -0.39000      31.46900       1.61901   
 0.36300    4.53128     30.80426     -128.98524      4.55174      -0.38836      31.33372       1.66194   
 0.36400    4.56202     30.67360     -132.32942      4.58301      -0.38667      31.19500       1.70420   
 0.36500    4.59263     30.53962     -135.62341      4.61413      -0.38495      31.05288       1.74580   
 0.36600    4.62310     30.40237     -138.86677      4.64511      -0.38318      30.90744       1.78672   
 0.36700    4.65343     30.26190     -142.05909      4.67594      -0.38137      30.75872       1.82696   
 0.36800    4.68362     30.11827     -145.20002      4.70663      -0.37953      30.60678       1.86652   
 0.36900    4.71366     29.97152     -148.28924      4.73716      -0.37764      30.45169       1.90540   
 0.37000    4.74356     29.82171     -151.32646      4.76753      -0.37572      30.29349       1.94358   
 0.37100    4.77331     29.66888     -154.31144      4.79774      -0.37375      30.13225       1.98108   
 0.37200    4.80290     29.51310     -157.24398      4.82779      -0.37176      29.96803       2.01788   
 0.37300    4.83233     29.35441     -160.12391      4.85768      -0.36972      29.80088       2.05399   
 0.37400    4.86161     29.19287     -162.95110      4.88739      -0.36765      29.63087       2.08940   
 0.37500    4.89072     29.02853     -165.72547      4.91694      -0.36554      29.45805       2.12411   
 0.37600    4.91966     28.86144     -168.44694      4.94631      -0.36340      29.28248       2.15813   
 0.37700    4.94844     28.69165     -171.11551      4.97550      -0.36122      29.10422       2.19146   
 0.37800    4.97704     28.51922     -173.73118      5.00452      -0.35902      28.92333       2.22409   
 0.37900    5.00548     28.34421     -176.29400      5.03335      -0.35678      28.73986       2.25603   
 0.38000    5.03373     28.16665     -178.80404      5.06199      -0.35451      28.55387       2.28727   
 0.38100    5.06181     27.98662     -181.26142      5.09045      -0.35220      28.36543       2.31783   
 0.38200    5.08970     27.80415     -183.66628      5.11872      -0.34987      28.17459       2.34770   
 0.38300    5.11742     27.61930     -186.01878      5.14680      -0.34751      27.98140       2.37689   
 0.38400    5.14494     27.43213     -188.31913      5.17469      -0.34512      27.78592       2.40540   
 0.38500    5.17228     27.24268     -190.56755      5.20237      -0.34270      27.58821       2.43323   
 0.38600    5.19943     27.05101     -192.76431      5.22986      -0.34025      27.38833       2.46039   
 0.38700    5.22638     26.85717     -194.90968      5.25715      -0.33778      27.18633       2.48689   
 0.38800    5.25314     26.66121     -197.00396      5.28423      -0.33528      26.98226       2.51272   
 0.38900    5.27970     26.46318     -199.04750      5.31111      -0.33275      26.77619       2.53789   
 0.39000    5.30607     26.26313     -201.04065      5.33779      -0.33020      26.56816       2.56241   
 0.39100    5.33223     26.06111     -202.98379      5.36425      -0.32763      26.35823       2.58628   
 0.39200    5.35819     25.85718     -204.87732      5.39050      -0.32503      26.14645       2.60952   
 0.39300    5.38394     25.65137     -206.72167      5.41654      -0.32241      25.93287       2.63211   
 0.39400    5.40949     25.44375     -208.51726      5.44237      -0.31976      25.71755       2.65408   
 0.39500    5.43483     25.23436     -210.26458      5.46798      -0.31710      25.50054       2.67543   
 0.39600    5.45996     25.02324     -211.96410      5.49337      -0.31441      25.28189       2.69617   
 0.39700    5.48488     24.81044     -213.61631      5.51854      -0.31171      25.06165       2.71629   
 0.39800    5.50958     24.59602     -215.22173      5.54349      -0.30898      24.83986       2.73582   
 0.39900    5.53407     24.38002     -216.78089      5.56822      -0.30624      24.61658       2.75476   
 0.40000    5.55834     24.16247     -218.29434      5.59272      -0.30347      24.39186       2.77311   
 0.40100    5.58239     23.94344     -219.76264      5.61700      -0.30069      24.16574       2.79088   
 0.40200    5.60622     23.72296     -221.18636      5.64105      -0.29789      23.93827       2.80808   
 0.40300    5.62984     23.50108     -222.56607      5.66488      -0.29507      23.70950       2.82473   
 0.40400    5.65323     23.27785     -223.90239      5.68847      -0.29224      23.47947       2.84082   
 0.40500    5.67639     23.05329     -225.19592      5.71184      -0.28939      23.24822       2.85636   
 0.40600    5.69933     22.82747     -226.44726      5.73497      -0.28653      23.01580       2.87137   
 0.40700    5.72205     22.60041     -227.65706      5.75787      -0.28365      22.78226       2.88586   
 0.40800    5.74453     22.37217     -228.82593      5.78053      -0.28076      22.54763       2.89982   
 0.40900    5.76679     22.14277     -229.95454      5.80296      -0.27785      22.31195       2.91328   
 0.41000    5.78882     21.91227     -231.04351      5.82516      -0.27493      22.07528       2.92623   
 0.41100    5.81061     21.68070     -232.09351      5.84711      -0.27200      21.83764       2.93870   
 0.41200    5.83218     21.44810     -233.10519      5.86883      -0.26905      21.59908       2.95068   
 0.41300    5.85351     21.21450     -234.07922      5.89031      -0.26610      21.35963       2.96218   
 0.41400    5.87461     20.97995     -235.01627      5.91155      -0.26313      21.11934       2.97322   
 0.41500    5.89547     20.74448     -235.91701      5.93255      -0.26015      20.87824       2.98381   
 0.41600    5.91610     20.50813     -236.78210      5.95331      -0.25716      20.63636       2.99395   
 0.41700    5.93649     20.27093     -237.61224      5.97382      -0.25416      20.39375       3.00365   
 0.41800    5.95664     20.03292     -238.40808      5.99409      -0.25115      20.15043       3.01292   
 0.41900    5.97655     19.79412     -239.17032      6.01412      -0.24814      19.90644       3.02177   
 0.42000    5.99623     19.55459     -239.89962      6.03391      -0.24511      19.66182       3.03021   
 0.42100    6.01566     19.31434     -240.59666      6.05345      -0.24208      19.41659       3.03825   
 0.42200    6.03485     19.07340     -241.26213      6.07274      -0.23903      19.17079       3.04590   
 0.42300    6.05381     18.83182     -241.89668      6.09179      -0.23599      18.92445       3.05316   
 0.42400    6.07252     18.58962     -242.50100      6.11059      -0.23293      18.67759       3.06005   
 0.42500    6.09099     18.34683     -243.07575      6.12914      -0.22987      18.43026       3.06657   
 0.42600    6.10921     18.10348     -243.62160      6.14745      -0.22680      18.18247       3.07274   
 0.42700    6.12719     17.85960     -244.13921      6.16551      -0.22372      17.93425       3.07855   
 0.42800    6.14493     17.61521     -244.62924      6.18332      -0.22064      17.68564       3.08403   
 0.42900    6.16242     17.37035     -245.09234      6.20088      -0.21755      17.43665       3.08918   
 0.43000    6.17967     17.12503     -245.52916      6.21819      -0.21446      17.18732       3.09400   
 0.43100    6.19667     16.87930     -245.94035      6.23525      -0.21136      16.93766       3.09851   
 0.43200    6.21343     16.63316     -246.32653      6.25207      -0.20826      16.68771       3.10271   
 0.43300    6.22994     16.38665     -246.68835      6.26863      -0.20516      16.43749       3.10661   
 0.43400    6.24620     16.13979     -247.02642      6.28494      -0.20205      16.18701       3.11023   
 0.43500    6.26222     15.89261     -247.34137      6.30100      -0.19894      15.93631       3.11356   
 0.43600    6.27799     15.64512     -247.63380      6.31681      -0.19582      15.68539       3.11662   
 0.43700    6.29351     15.39735     -247.90431      6.33237      -0.19271      15.43430       3.11941   
 0.43800    6.30878     15.14932     -248.15351      6.34768      -0.18958      15.18303       3.12195   
 0.43900    6.32381     14.90105     -248.38198      6.36274      -0.18646      14.93162       3.12423   
 0.44000    6.33858     14.65256     -248.59029      6.37754      -0.18334      14.68009       3.12627   
 0.44100    6.35311     14.40387     -248.77902      6.39210      -0.18021      14.42844       3.12808   
 0.44200    6.36739     14.15501     -248.94873      6.40640      -0.17708      14.17670       3.12965   
 0.44300    6.38142     13.90598     -249.09997      6.42045      -0.17395      13.92489       3.13101   
 0.44400    6.39520     13.65681     -249.23328      6.43425      -0.17082      13.67303       3.13215   
 0.44500    6.40874     13.40752     -249.34919      6.44780      -0.16769      13.42112       3.13308   
 0.44600    6.42202     13.15812     -249.44823      6.46109      -0.16455      13.16919       3.13382   
 0.44700    6.43505     12.90863     -249.53091      6.47414      -0.16142      12.91724       3.13435   
 0.44800    6.44784     12.65906     -249.59773      6.48693      -0.15828      12.66530       3.13471   
 0.44900    6.46037     12.40944     -249.64919      6.49947      -0.15515      12.41338       3.13487   
 0.45000    6.47265     12.15977     -249.68576      6.51176      -0.15201      12.16149       3.13487   
 0.45100    6.48469     11.91007     -249.70792      6.52379      -0.14888      11.90964       3.13469   
 0.45200    6.49647     11.66036     -249.71613      6.53557      -0.14574      11.65785       3.13435   
 0.45300    6.50801     11.41064     -249.71084      6.54711      -0.14261      11.40613       3.13386   
 0.45400    6.51930     11.16094     -249.69248      6.55839      -0.13948      11.15449       3.13321   
 0.45500    6.53033     10.91126     -249.66149      6.56942      -0.13634      10.90294       3.13241   
 0.45600    6.54112     10.66162     -249.61827      6.58019      -0.13321      10.65149       3.13147   
 0.45700    6.55166     10.41203     -249.56324      6.59072      -0.13008      10.40016       3.13040   
 0.45800    6.56194     10.16250     -249.49678      6.60099      -0.12695      10.14894       3.12919   
 0.45900    6.57198      9.91304     -249.41929      6.61102      -0.12382       9.89786       3.12786   
 0.46000    6.58177      9.66366     -249.33112      6.62079      -0.12070       9.64692       3.12641   
 0.46100    6.59131      9.41438     -249.23264      6.63031      -0.11757       9.39612       3.12484   
 0.46200    6.60060      9.16520     -249.12419      6.63958      -0.11445       9.14548       3.12316   
 0.46300    6.60964      8.91614     -249.00611      6.64860      -0.11132       8.89501       3.12136   
 0.46400    6.61843      8.66719     -248.87872      6.65737      -0.10820       8.64471       3.11947   
 0.46500    6.62697      8.41838     -248.74234      6.66589      -0.10508       8.39459       3.11747   
 0.46600    6.63527      8.16971     -248.59726      6.67416      -0.10197       8.14466       3.11537   
 0.46700    6.64331      7.92119     -248.44376      6.68218      -0.09885       7.89492       3.11318   
 0.46800    6.65111      7.67283     -248.28214      6.68995      -0.09574       7.64538       3.11091   
 0.46900    6.65866      7.42463     -248.11264      6.69747      -0.09263       7.39604       3.10854   
 0.47000    6.66596      7.17660     -247.93553      6.70474      -0.08953       7.14692       3.10609   
 0.47100    6.67301      6.92876     -247.75103      6.71176      -0.08642       6.89802       3.10357   
 0.47200    6.67982      6.68110     -247.55939      6.71854      -0.08332       6.64933       3.10096   
 0.47300    6.68637      6.43364     -247.36081      6.72506      -0.08022       6.40088       3.09828   
 0.47400    6.69268      6.18639     -247.15550      6.73134      -0.07712       6.15266       3.09552   
 0.47500    6.69875      5.93934     -246.94365      6.73737      -0.07403       5.90467       3.09270   
 0.47600    6.70456      5.69250     -246.72544      6.74315      -0.07094       5.65693       3.08981   
 0.47700    6.71013      5.44589     -246.50104      6.74868      -0.06785       5.40943       3.08685   
 0.47800    6.71545      5.19950     -246.27061      6.75397      -0.06476       5.16219       3.08383   
 0.47900    6.72053      4.95335     -246.03429      6.75901      -0.06168       4.91520       3.08075   
 0.48000    6.72536      4.70743     -245.79222      6.76380      -0.05860       4.66847       3.07761   
 0.48100    6.72995      4.46176     -245.54451      6.76834      -0.05552       4.42200       3.07440   
 0.48200    6.73428      4.21635     -245.29128      6.77264      -0.05245       4.17580       3.07114   
 0.48300    6.73838      3.97118     -245.03262      6.77670      -0.04938       3.92986       3.06783   
 0.48400    6.74223      3.72628     -244.76862      6.78050      -0.04632       3.68420       3.06446   
 0.48500    6.74583      3.48165     -244.49936      6.78406      -0.04325       3.43882       3.06103   
 0.48600    6.74919      3.23729     -244.22489      6.78738      -0.04019       3.19372       3.05755   
 0.48700    6.75231      2.99320     -243.94527      6.79045      -0.03714       2.94890       3.05402   
 0.48800    6.75518      2.74940     -243.66055      6.79328      -0.03409       2.70437       3.05043   
 0.48900    6.75780      2.50588     -243.37074      6.79586      -0.03104       2.46014       3.04679   
 0.49000    6.76019      2.26266     -243.07587      6.79820      -0.02799       2.21619       3.04310   
 0.49100    6.76233      2.01973     -242.77594      6.80029      -0.02495       1.97254       3.03936   
 0.49200    6.76423      1.77711     -242.47096      6.80214      -0.02191       1.72919       3.03556   
 0.49300    6.76588      1.53479     -242.16090      6.80375      -0.01888       1.48615       3.03172   
 0.49400    6.76730      1.29279     -241.84573      6.80512      -0.01585       1.24341       3.02781   
 0.49500    6.76847      1.05110     -241.52543      6.80624      -0.01282       1.00099       3.02386   
 0.49600    6.76940      0.80974     -241.19994      6.80712      -0.00980       0.75887       3.01985   
 0.49700    6.77009      0.56870     -240.86921      6.80776      -0.00679       0.51708       3.01579   
 0.49800    6.77054      0.32800     -240.53316      6.80815      -0.00377       0.27560       3.01167   
 0.49900    6.77075      0.08764     -240.19171      6.80831      -0.00076       0.03445       3.00749   
 0.50000    6.77071     -0.15238     -239.84478      6.80822       0.00224      -0.20637       3.00325   
 0.50100    6.77044     -0.39205     -239.49227      6.80790       0.00524      -0.44685       2.99896   
 0.50200    6.76993     -0.63136     -239.13406      6.80733       0.00824      -0.68701       2.99460   
 0.50300    6.76918     -0.87032     -238.77003      6.80652       0.01123      -0.92682       2.99018   
 0.50400    6.76819     -1.10890     -238.40006      6.80547       0.01422      -1.16628       2.98570   
 0.50500    6.76696     -1.34711     -238.02400      6.80419       0.01721      -1.40540       2.98115   
 0.50600    6.76549     -1.58495     -237.64171      6.80266       0.02018      -1.64416       2.97653   
 0.50700    6.76379     -1.82239     -237.25301      6.80090       0.02316      -1.88256       2.97184   
 0.50800    6.76185     -2.05945     -236.85776      6.79890       0.02613      -2.12060       2.96707   
 0.50900    6.75967     -2.29611     -236.45575      6.79666       0.02909      -2.35827       2.96223   
 0.51000    6.75726     -2.53236     -236.04682      6.79418       0.03205      -2.59556       2.95732   
 0.51100    6.75461     -2.76820     -235.63076      6.79147       0.03501      -2.83248       2.95232   
 0.51200    6.75172     -3.00362     -235.20737      6.78852       0.03796      -3.06901       2.94724   
 0.51300    6.74860     -3.23861     -234.77643      6.78533       0.04090      -3.30515       2.94208   
 0.51400    6.74524     -3.47317     -234.33772      6.78191       0.04384      -3.54088       2.93682   
 0.51500    6.74165     -3.70728     -233.89101      6.77825       0.04678      -3.77622       2.93148   
 0.51600    6.73783     -3.94095     -233.43606      6.77436       0.04970      -4.01114       2.92604   
 0.51700    6.73377     -4.17415     -232.97263      6.77023       0.05263      -4.24564       2.92050   
 0.51800    6.72948     -4.40689     -232.50046      6.76586       0.05554      -4.47972       2.91486   
 0.51900    6.72496     -4.63915     -232.01928      6.76127       0.05846      -4.71336       2.90911   
 0.52000    6.72020     -4.87093     -231.52884      6.75644       0.06136      -4.94656       2.90326   
 0.52100    6.71522     -5.10221     -231.02884      6.75137       0.06426      -5.17931       2.89729   
 0.52200    6.71000     -5.33298     -230.51901      6.74608       0.06716      -5.41161       2.89120   
 0.52300    6.70455     -5.56324     -229.99906      6.74055       0.07005      -5.64343       2.88500   
 0.52400    6.69887     -5.79298     -229.46869      6.73479       0.07293      -5.87478       2.87867   
 0.52500    6.69297     -6.02217     -228.92760      6.72880       0.07580      -6.10564       2.87222   
 0.52600    6.68683     -6.25083     -228.37548      6.72258       0.07867      -6.33601       2.86563   
 0.52700    6.68046     -6.47892     -227.81200      6.71613       0.08153      -6.56587       2.85891   
 0.52800    6.67387     -6.70645     -227.23686      6.70945       0.08439      -6.79521       2.85204   
 0.52900    6.66705     -6.93339     -226.64973      6.70254       0.08724      -7.02402       2.84503   
 0.53000    6.66000     -7.15974     -226.05028      6.69540       0.09008      -7.25230       2.83788   
 0.53100    6.65273     -7.38549     -225.43816      6.68804       0.09291      -7.48002       2.83056   
 0.53200    6.64523     -7.61061     -224.81305      6.68044       0.09574      -7.70718       2.82309   
 0.53300    6.63751     -7.83511     -224.17459      6.67262       0.09856      -7.93376       2.81546   
 0.53400    6.62956     -8.05896     -223.52244      6.66457       0.10137      -8.15976       2.80766   
 0.53500    6.62139     -8.28215     -222.85625      6.65630       0.10418      -8.38515       2.79969   
 0.53600    6.61300     -8.50467     -222.17566      6.64780       0.10697      -8.60993       2.79154   
 0.53700    6.60438     -8.72650     -221.48032      6.63908       0.10976      -8.83408       2.78321   
 0.53800    6.59555     -8.94762     -220.76987      6.63014       0.11254      -9.05758       2.77469   
 0.53900    6.58649     -9.16803     -220.04395      6.62097       0.11531      -9.28042       2.76598   
 0.54000    6.57721     -9.38771     -219.30219      6.61158       0.11807      -9.50259       2.75707   
 0.54100    6.56771     -9.60663     -218.54422      6.60196       0.12082      -9.72407       2.74796   
 0.54200    6.55800     -9.82479     -217.76969      6.59213       0.12356      -9.94484       2.73865   
 0.54300    6.54806    -10.04216     -216.97822      6.58207       0.12630     -10.16489       2.72912   
 0.54400    6.53791    -10.25874     -216.16945      6.57180       0.12902     -10.38420       2.71938   
 0.54500    6.52755    -10.47450     -215.34301      6.56131       0.13174     -10.60275       2.70942   
 0.54600    6.51697    -10.68942     -214.49855      6.55059       0.13444     -10.82053       2.69923   
 0.54700    6.50617    -10.90349     -213.63568      6.53966       0.13714     -11.03751       2.68881   
 0.54800    6.49516    -11.11668     -212.75405      6.52852       0.13982     -11.25367       2.67816   
 0.54900    6.48394    -11.32899     -211.85330      6.51716       0.14249     -11.46901       2.66726   
 0.55000    6.47250    -11.54038     -210.93306      6.50558       0.14515     -11.68350       2.65612   
 0.55100    6.46086    -11.75085     -209.99299      6.49379       0.14780     -11.89711       2.64472   
 0.55200    6.44900    -11.96036     -209.03272      6.48179       0.15044     -12.10983       2.63307   
 0.55300    6.43694    -12.16891     -208.05191      6.46957       0.15307     -12.32163       2.62116   
 0.55400    6.42466    -12.37646     -207.05022      6.45714       0.15569     -12.53251       2.60899   
 0.55500    6.41218    -12.58300     -206.02729      6.44451       0.15829     -12.74242       2.59654   
 0.55600    6.39950    -12.78851     -204.98280      6.43166       0.16088     -12.95136       2.58382   
 0.55700    6.38661    -12.99296     -203.91642      6.41860       0.16346     -13.15930       2.57082   
 0.55800    6.37351    -13.19633     -202.82782      6.40534       0.16602     -13.36621       2.55753   
 0.55900    6.36021    -13.39861     -201.71668      6.39187       0.16857     -13.57207       2.54396   
 0.56000    6.34671    -13.59976     -200.58269      6.37820       0.17111     -13.77686       2.53010   
 0.56100    6.33301    -13.79976     -199.42556      6.36432       0.17363     -13.98056       2.51593   
 0.56200    6.31912    -13.99860     -198.24497      6.35024       0.17614     -14.18314       2.50147   
 0.56300    6.30502    -14.19625     -197.04066      6.33595       0.17863     -14.38457       2.48670   
 0.56400    6.29072    -14.39268     -195.81234      6.32147       0.18111     -14.58483       2.47162   
 0.56500    6.27623    -14.58786     -194.55975      6.30678       0.18358     -14.78390       2.45623   
 0.56600    6.26155    -14.78179     -193.28262      6.29190       0.18603     -14.98174       2.44052   
 0.56700    6.24667    -14.97442     -191.98071      6.27682       0.18846     -15.17833       2.42449   
 0.56800    6.23160    -15.16574     -190.65378      6.26154       0.19087     -15.37365       2.40813   
 0.56900    6.21634    -15.35572     -189.30161      6.24607       0.19327     -15.56767       2.39145   
 0.57000    6.20089    -15.54433     -187.92399      6.23041       0.19566     -15.76036       2.37444   
 0.57100    6.18525    -15.73156     -186.52072      6.21455       0.19802     -15.95169       2.35709   
 0.57200    6.16943    -15.91737     -185.09162      6.19851       0.20037     -16.14163       2.33941   
 0.57300    6.15342    -16.10173     -183.63650      6.18227       0.20270     -16.33016       2.32139   
 0.57400    6.13722    -16.28463     -182.15521      6.16585       0.20501     -16.51725       2.30302   
 0.57500    6.12085    -16.46603     -180.64762      6.14924       0.20731     -16.70287       2.28432   
 0.57600    6.10429    -16.64592     -179.11358      6.13244       0.20958     -16.88699       2.26526   
 0.57700    6.08756    -16.82425     -177.55299      6.11546       0.21184     -17.06959       2.24586   
 0.57800    6.07064    -17.00101     -175.96575      6.09830       0.21407     -17.25062       2.22611   
 0.57900    6.05355    -17.17618     -174.35178      6.08096       0.21629     -17.43007       2.20601   
 0.58000    6.03629    -17.34971     -172.71101      6.06344       0.21849     -17.60790       2.18556   
 0.58100    6.01886    -17.52159     -171.04341      6.04575       0.22066     -17.78409       2.16475   
 0.58200    6.00125    -17.69179     -169.34894      6.02788       0.22282     -17.95860       2.14359   
 0.58300    5.98347    -17.86028     -167.62759      6.00983       0.22495     -18.13141       2.12207   
 0.58400    5.96553    -18.02703     -165.87937      5.99161       0.22706     -18.30248       2.10020   
 0.58500    5.94742    -18.19203     -164.10431      5.97323       0.22915     -18.47178       2.07798   
 0.58600    5.92915    -18.35523     -162.30246      5.95467       0.23121     -18.63930       2.05540   
 0.58700    5.91071    -18.51662     -160.47387      5.93595       0.23326     -18.80498       2.03246   
 0.58800    5.89211    -18.67617     -158.61865      5.91706       0.23528     -18.96881       2.00918   
 0.58900    5.87336    -18.83385     -156.73688      5.89801       0.23728     -19.13076       1.98554   
 0.59000    5.85445    -18.98964     -154.82871      5.87880       0.23925     -19.29079       1.96155   
 0.59100    5.83538    -19.14350     -152.89428      5.85943       0.24120     -19.44887       1.93721   
 0.59200    5.81616    -19.29542     -150.93376      5.83990       0.24313     -19.60498       1.91252   
 0.59300    5.79679    -19.44536     -148.94733      5.82022       0.24503     -19.75909       1.88749   
 0.59400    5.77727    -19.59330     -146.93522      5.80039       0.24690     -19.91117       1.86211   
 0.59500    5.75760    -19.73922     -144.89764      5.78040       0.24875     -20.06118       1.83640   
 0.59600    5.73779    -19.88309     -142.83487      5.76026       0.25057     -20.20910       1.81035   
 0.59700    5.71784    -20.02488     -140.74717      5.73998       0.25237     -20.35490       1.78396   
 0.59800    5.69774    -20.16458     -138.63484      5.71955       0.25414     -20.49856       1.75724   
 0.59900    5.67751    -20.30214     -136.49820      5.69899       0.25588     -20.64003       1.73020   
 0.60000    5.65714    -20.43756     -134.33760      5.67828       0.25760     -20.77931       1.70284   
 0.60100    5.63663    -20.57081     -132.15339      5.65743       0.25929     -20.91635       1.67516   
 0.60200    5.61600    -20.70186     -129.94597      5.63644       0.26095     -21.05113       1.64716   
 0.60300    5.59523    -20.83070     -127.71574      5.61533       0.26258     -21.18363       1.61886   
 0.60400    5.57434    -20.95729     -125.46314      5.59408       0.26419     -21.31382       1.59026   
 0.60500    5.55332    -21.08162     -123.18860      5.57270       0.26576     -21.44167       1.56136   
 0.60600    5.53217    -21.20366     -120.89262      5.55119       0.26731     -21.56716       1.53217   
 0.60700    5.51091    -21.32339     -118.57567      5.52957       0.26883     -21.69026       1.50270   
 0.60800    5.48953    -21.44080     -116.23827      5.50781       0.27032     -21.81095       1.47296   
 0.60900    5.46803    -21.55586     -113.88097      5.48594       0.27177     -21.92921       1.44294   
 0.61000    5.44642    -21.66856     -111.50431      5.46396       0.27320     -22.04501       1.41266   
 0.61100    5.42469    -21.77887     -109.10888      5.44186       0.27460     -22.15833       1.38212   
 0.61200    5.40286    -21.88677     -106.69526      5.41964       0.27597     -22.26915       1.35134   
 0.61300    5.38092    -21.99225     -104.26407      5.39732       0.27730     -22.37744       1.32032   
 0.61400    5.35888    -22.09529     -101.81596      5.37489       0.27861     -22.48319       1.28907   
 0.61500    5.33673    -22.19588      -99.35156      5.35235       0.27988     -22.58638       1.25760   
 0.61600    5.31449    -22.29399      -96.87155      5.32972       0.28112     -22.68699       1.22591   
 0.61700    5.29214    -22.38962      -94.37663      5.30698       0.28233     -22.78500       1.19402   
 0.61800    5.26971    -22.48274      -91.86749      5.28415       0.28351     -22.88039       1.16193   
 0.61900    5.24718    -22.57335      -89.34486      5.26122       0.28466     -22.97314       1.12966   
 0.62000    5.22456    -22.66142      -86.80947      5.23820       0.28577     -23.06325       1.09722   
 0.62100    5.20186    -22.74696      -84.26209      5.21509       0.28685     -23.15069       1.06461   
 0.62200    5.17907    -22.82994      -81.70347      5.19190       0.28790     -23.23545       1.03185   
 0.62300    5.15620    -22.91036      -79.13440      5.16862       0.28891     -23.31753       0.99894   
 0.62400    5.13325    -22.98821      -76.55567      5.14527       0.28990     -23.39690       0.96590   
 0.62500    5.11022    -23.06347      -73.96809      5.12183       0.29085     -23.47355       0.93273   
 0.62600    5.08712    -23.13614      -71.37249      5.09832       0.29176     -23.54748       0.89945   
 0.62700    5.06395    -23.20621      -68.76968      5.07474       0.29264     -23.61867       0.86608   
 0.62800    5.04071    -23.27368      -66.16052      5.05108       0.29349     -23.68712       0.83261   
 0.62900    5.01741    -23.33853      -63.54584      5.02736       0.29431     -23.75282       0.79907   
 0.63000    4.99404    -23.40077      -60.92652      5.00358       0.29509     -23.81576       0.76546   
 0.63100    4.97060    -23.46039      -58.30341      4.97973       0.29584     -23.87594       0.73179   
 0.63200    4.94712    -23.51738      -55.67739      4.95583       0.29656     -23.93335       0.69809   
 0.63300    4.92357    -23.57174      -53.04934      4.93187       0.29724     -23.98799       0.66435   
 0.63400    4.89997    -23.62347      -50.42015      4.90785       0.29788     -24.03986       0.63059   
 0.63500    4.87632    -23.67258      -47.79069      4.88379       0.29850     -24.08896       0.59683   
 0.63600    4.85263    -23.71906      -45.16187      4.85968       0.29908     -24.13528       0.56307   
 0.63700    4.82889    -23.76290      -42.53458      4.83552       0.29962     -24.17883       0.52933   
 0.63800    4.80510    -23.80413      -39.90972      4.81132       0.30014     -24.21960       0.49562   
 0.63900    4.78128    -23.84272      -37.28818      4.78708       0.30062     -24.25761       0.46195   
 0.64000    4.75742    -23.87870      -34.67086      4.76281       0.30106     -24.29285       0.42834   
 0.64100    4.73352    -23.91207      -32.05865      4.73850       0.30147     -24.32533       0.39479   
 0.64200    4.70960    -23.94282      -29.45245      4.71416       0.30185     -24.35505       0.36132   
 0.64300    4.68564    -23.97098      -26.85316      4.68979       0.30219     -24.38203       0.32794   
 0.64400    4.66165    -23.99653      -24.26165      4.66539       0.30251     -24.40627       0.29466   
 0.64500    4.63765    -24.01950      -21.67882      4.64097       0.30278     -24.42778       0.26149   
 0.64600    4.61362    -24.03989      -19.10553      4.61654       0.30303     -24.44656       0.22845   
 0.64700    4.58957    -24.05772      -16.54267      4.59208       0.30324     -24.46264       0.19555   
 0.64800    4.56550    -24.07298      -13.99108      4.56761       0.30342     -24.47602       0.16280   
 0.64900    4.54142    -24.08570      -11.45164      4.54313       0.30357     -24.48672       0.13021   
 0.65000    4.51733    -24.09589       -8.92518      4.51864       0.30368     -24.49475       0.09779   
 0.65100    4.49323    -24.10356       -6.41254      4.49414       0.30376     -24.50013       0.06556   
 0.65200    4.46913    -24.10872       -3.91455      4.46964       0.30381     -24.50286       0.03352   
 0.65300    4.44501    -24.11139       -1.43202      4.44514       0.30383     -24.50298       0.00168   
 0.65400    4.42090    -24.11159        1.03424      4.42064       0.30382     -24.50049      -0.02994   
 0.65500    4.39679    -24.10933        3.48344      4.39614       0.30377     -24.49541      -0.06133   
 0.65600    4.37269    -24.10463        5.91481      4.37165       0.30369     -24.48778      -0.09248   
 0.65700    4.34858    -24.09751        8.32759      4.34716       0.30358     -24.47759      -0.12339   
 0.65800    4.32449    -24.08798       10.72102      4.32269       0.30345     -24.46489      -0.15404   
 0.65900    4.30041    -24.07607       13.09438      4.29823       0.30328     -24.44968      -0.18442   
 0.66000    4.27634    -24.06180       15.44695      4.27379       0.30308     -24.43200      -0.21452   
 0.66100    4.25229    -24.04518       17.77802      4.24937       0.30285     -24.41186      -0.24434   
 0.66200    4.22825    -24.02625       20.08692      4.22497       0.30259     -24.38930      -0.27386   
 0.66300    4.20423    -24.00502       22.37298      4.20059       0.30230     -24.36433      -0.30308   
 0.66400    4.18024    -23.98151       24.63556      4.17624       0.30198     -24.33699      -0.33199   
 0.66500    4.15627    -23.95575       26.87403      4.15192       0.30164     -24.30730      -0.36058   
 0.66600    4.13233    -23.92777       29.08778      4.12763       0.30126     -24.27528      -0.38883   
 0.66700    4.10842    -23.89759       31.27622      4.10337       0.30086     -24.24097      -0.41675   
 0.66800    4.08454    -23.86523       33.43878      4.07915       0.30043     -24.20439      -0.44433   
 0.66900    4.06069    -23.83072       35.57491      4.05496       0.29997     -24.16558      -0.47155   
 0.67000    4.03688    -23.79409       37.68409      4.03082       0.29949     -24.12457      -0.49842   
 0.67100    4.01310    -23.75536       39.76581      4.00671       0.29897     -24.08138      -0.52492   
 0.67200    3.98937    -23.71456       41.81958      3.98265       0.29844     -24.03605      -0.55105   
 0.67300    3.96567    -23.67173       43.84493      3.95864       0.29787     -23.98860      -0.57680   
 0.67400    3.94202    -23.62688       45.84143      3.93468       0.29728     -23.93908      -0.60218   
 0.67500    3.91842    -23.58006       47.80865      3.91076       0.29667     -23.88751      -0.62716   
 0.67600    3.89486    -23.53128       49.74619      3.88690       0.29603     -23.83392      -0.65175   
 0.67700    3.87136    -23.48057       51.65368      3.86310       0.29536     -23.77836      -0.67594   
 0.67800    3.84790    -23.42798       53.53075      3.83935       0.29468     -23.72085      -0.69973   
 0.67900    3.82450    -23.37352       55.37708      3.81566       0.29396     -23.66143      -0.72311   
 0.68000    3.80116    -23.31724       57.19234      3.79203       0.29323     -23.60013      -0.74609   
 0.68100    3.77787    -23.25915       58.97626      3.76846       0.29247     -23.53698      -0.76865   
 0.68200    3.75464    -23.19929       60.72856      3.74495       0.29169     -23.47203      -0.79079   
 0.68300    3.73147    -23.13770       62.44899      3.72151       0.29089     -23.40531      -0.81251   
 0.68400    3.70836    -23.07441       64.13734      3.69814       0.29007     -23.33685      -0.83381   
 0.68500    3.68532    -23.00944       65.79339      3.67484       0.28922     -23.26669      -0.85468   
 0.68600    3.66234    -22.94283       67.41697      3.65161       0.28836     -23.19486      -0.87513   
 0.68700    3.63944    -22.87462       69.00791      3.62845       0.28747     -23.12141      -0.89514   
 0.68800    3.61660    -22.80483       70.56608      3.60537       0.28657     -23.04636      -0.91473   
 0.68900    3.59383    -22.73349       72.09135      3.58236       0.28564     -22.96975      -0.93389   
 0.69000    3.57113    -22.66065       73.58364      3.55943       0.28470     -22.89162      -0.95261   
 0.69100    3.54851    -22.58634       75.04285      3.53658       0.28374     -22.81201      -0.97090   
 0.69200    3.52596    -22.51058       76.46893      3.51380       0.28276     -22.73095      -0.98875   
 0.69300    3.50349    -22.43341       77.86184      3.49111       0.28176     -22.64848      -1.00617   
 0.69400    3.48109    -22.35487       79.22157      3.46851       0.28075     -22.56463      -1.02316   
 0.69500    3.45878    -22.27498       80.54812      3.44599       0.27972     -22.47945      -1.03971   
 0.69600    3.43654    -22.19378       81.84150      3.42355       0.27867     -22.39296      -1.05583   
 0.69700    3.41439    -22.11131       83.10174      3.40120       0.27760     -22.30520      -1.07152   
 0.69800    3.39232    -22.02759       84.32891      3.37894       0.27652     -22.21621      -1.08678   
 0.69900    3.37033    -21.94266       85.52308      3.35677       0.27543     -22.12603      -1.10161   
 0.70000    3.34843    -21.85655       86.68434      3.33469       0.27432     -22.03469      -1.11601   
 0.70100    3.32662    -21.76930       87.81278      3.31270       0.27320     -21.94222      -1.12998   
 0.70200    3.30490    -21.68094       88.90855      3.29080       0.27206     -21.84867      -1.14353   
 0.70300    3.28326    -21.59150       89.97176      3.26900       0.27091     -21.75406      -1.15666   
 0.70400    3.26171    -21.50101       91.00258      3.24730       0.26975     -21.65843      -1.16937   
 0.70500    3.24026    -21.40950       92.00118      3.22569       0.26857     -21.56181      -1.18166   
 0.70600    3.21889    -21.31701       92.96774      3.20417       0.26739     -21.46425      -1.19354   
 0.70700    3.19762    -21.22358       93.90245      3.18276       0.26619     -21.36577      -1.20501   
 0.70800    3.17645    -21.12922       94.80553      3.16144       0.26498     -21.26641      -1.21606   
 0.70900    3.15537    -21.03398       95.67720      3.14023       0.26375     -21.16620      -1.22672   
 0.71000    3.13438    -20.93788       96.51769      3.11911       0.26252     -21.06518      -1.23697   
 0.71100    3.11349    -20.84095       97.32725      3.09810       0.26128     -20.96337      -1.24682   
 0.71200    3.09270    -20.74323       98.10615      3.07718       0.26003     -20.86081      -1.25628   
 0.71300    3.07200    -20.64475       98.85465      3.05637       0.25877     -20.75754      -1.26535   
 0.71400    3.05141    -20.54553       99.57304      3.03567       0.25750     -20.65358      -1.27403   
 0.71500    3.03091    -20.44561      100.26161      3.01507       0.25622     -20.54897      -1.28233   
 0.71600    3.01052    -20.34502      100.92065      2.99457       0.25493     -20.44373      -1.29026   
 0.71700    2.99022    -20.24378      101.55049      2.97418       0.25364     -20.33790      -1.29781   
 0.71800    2.97003    -20.14193      102.15143      2.95389       0.25234     -20.23151      -1.30499   
 0.71900    2.94994    -20.03949      102.72381      2.93372       0.25103     -20.12459      -1.31180   
 0.72000    2.92995    -19.93649      103.26796      2.91365       0.24971     -20.01716      -1.31826   
 0.72100    2.91007    -19.83296      103.78423      2.89368       0.24839     -19.90926      -1.32436   
 0.72200    2.89029    -19.72893      104.27296      2.87383       0.24707     -19.80092      -1.33011   
 0.72300    2.87061    -19.62442      104.73451      2.85408       0.24573     -19.69216      -1.33551   
 0.72400    2.85104    -19.51947      105.16925      2.83444       0.24440     -19.58301      -1.34057   
 0.72500    2.83157    -19.41409      105.57754      2.81492       0.24305     -19.47351      -1.34530   
 0.72600    2.81221    -19.30832      105.95976      2.79550       0.24170     -19.36366      -1.34970   
 0.72700    2.79295    -19.20218      106.31628      2.77619       0.24035     -19.25351      -1.35377   
 0.72800    2.77381    -19.09570      106.64749      2.75699       0.23900     -19.14308      -1.35753   
 0.72900    2.75476    -18.98890      106.95377      2.73790       0.23764     -19.03239      -1.36096   
 0.73000    2.73583    -18.88180      107.23551      2.71892       0.23628     -18.92148      -1.36409   
 0.73100    2.71700    -18.77443      107.49311      2.70006       0.23491     -18.81035      -1.36691   
 0.73200    2.69828    -18.66682      107.72696      2.68130       0.23354     -18.69905      -1.36944   
 0.73300    2.67967    -18.55899      107.93746      2.66266       0.23217     -18.58759      -1.37167   
 0.73400    2.66116    -18.45095      108.12502      2.64413       0.23080     -18.47599      -1.37361   
 0.73500    2.64276    -18.34275      108.29003      2.62571       0.22942     -18.36428      -1.37527   
 0.73600    2.62448    -18.23438      108.43289      2.60740       0.22805     -18.25249      -1.37666   
 0.73700    2.60630    -18.12589      108.55402      2.58920       0.22667     -18.14063      -1.37777   
 0.73800    2.58822    -18.01728      108.65382      2.57112       0.22529     -18.02872      -1.37861   
 0.73900    2.57026    -17.90859      108.73269      2.55315       0.22391     -17.91679      -1.37919   
 0.74000    2.55241    -17.79982      108.79104      2.53529       0.22253     -17.80485      -1.37952   
 0.74100    2.53466    -17.69101      108.82928      2.51754       0.22115     -17.69293      -1.37959   
 0.74200    2.51702    -17.58217      108.84781      2.49990       0.21978     -17.58105      -1.37942   
 0.74300    2.49950    -17.47332      108.84704      2.48237       0.21840     -17.46922      -1.37901   
 0.74400    2.48208    -17.36448      108.82737      2.46496       0.21702     -17.35747      -1.37836   
 0.74500    2.46477    -17.25567      108.78921      2.44766       0.21564     -17.24582      -1.37749   
 0.74600    2.44757    -17.14691      108.73295      2.43047       0.21426     -17.13427      -1.37639   
 0.74700    2.43047    -17.03821      108.65900      2.41339       0.21289     -17.02285      -1.37507   
 0.74800    2.41349    -16.92960      108.56776      2.39642       0.21151     -16.91158      -1.37354   
 0.74900    2.39662    -16.82108      108.45961      2.37957       0.21014     -16.80047      -1.37180   
 0.75000    2.37985    -16.71268      108.33496      2.36282       0.20877     -16.68954      -1.36985   
 0.75100    2.36319    -16.60442      108.19420      2.34619       0.20740     -16.57881      -1.36771   
 0.75200    2.34664    -16.49630      108.03770      2.32967       0.20603     -16.46828      -1.36537   
 0.75300    2.33020    -16.38835      107.86587      2.31325       0.20467     -16.35798      -1.36285   
 0.75400    2.31386    -16.28057      107.67907      2.29695       0.20331     -16.24792      -1.36014   
 0.75500    2.29764    -16.17300      107.47770      2.28076       0.20195     -16.13811      -1.35725   
 0.75600    2.28152    -16.06562      107.26213      2.26467       0.20059     -16.02857      -1.35419   
 0.75700    2.26550    -15.95848      107.03272      2.24870       0.19924     -15.91932      -1.35096   
 0.75800    2.24960    -15.85156      106.78985      2.23283       0.19789     -15.81035      -1.34756   
 0.75900    2.23380    -15.74490      106.53389      2.21708       0.19655     -15.70170      -1.34401   
 0.76000    2.21811    -15.63850      106.26518      2.20143       0.19520     -15.59336      -1.34030   
 0.76100    2.20252    -15.53237      105.98410      2.18589       0.19387     -15.48535      -1.33644   
 0.76200    2.18704    -15.42654      105.69100      2.17046       0.19253     -15.37769      -1.33243   
 0.76300    2.17167    -15.32100      105.38622      2.15514       0.19120     -15.27038      -1.32828   
 0.76400    2.15640    -15.21577      105.07011      2.13992       0.18987     -15.16343      -1.32399   
 0.76500    2.14124    -15.11086      104.74300      2.12481       0.18855     -15.05686      -1.31958   
 0.76600    2.12618    -15.00628      104.40525      2.10981       0.18724     -14.95068      -1.31503   
 0.76700    2.11123    -14.90205      104.05717      2.09491       0.18592     -14.84489      -1.31036   
 0.76800    2.09638    -14.79817      103.69909      2.08012       0.18461     -14.73950      -1.30556   
 0.76900    2.08163    -14.69466      103.33134      2.06543       0.18331     -14.63453      -1.30066   
 0.77000    2.06699    -14.59151      102.95423      2.05085       0.18201     -14.52998      -1.29564   
 0.77100    2.05245    -14.48875      102.56808      2.03637       0.18072     -14.42586      -1.29051   
 0.77200    2.03801    -14.38638      102.17320      2.02199       0.17943     -14.32217      -1.28527   
 0.77300    2.02367    -14.28441      101.76989      2.00772       0.17815     -14.21894      -1.27994   
 0.77400    2.00944    -14.18284      101.35844      1.99356       0.17687     -14.11615      -1.27451   
 0.77500    1.99531    -14.08169      100.93915      1.97949       0.17560     -14.01383      -1.26899   
 0.77600    1.98128    -13.98097      100.51232      1.96553       0.17433     -13.91198      -1.26337   
 0.77700    1.96735    -13.88067      100.07822      1.95167       0.17307     -13.81060      -1.25767   
 0.77800    1.95352    -13.78081       99.63713      1.93791       0.17182     -13.70970      -1.25189   
 0.77900    1.93978    -13.68140       99.18934      1.92425       0.17057     -13.60929      -1.24603   
 0.78000    1.92615    -13.58244       98.73510      1.91069       0.16933     -13.50937      -1.24010   
 0.78100    1.91262    -13.48393       98.27468      1.89723       0.16809     -13.40995      -1.23409   
 0.78200    1.89918    -13.38589       97.80835      1.88387       0.16686     -13.31104      -1.22801   
 0.78300    1.88585    -13.28832       97.33636      1.87061       0.16563     -13.21263      -1.22187   
 0.78400    1.87261    -13.19122       96.85895      1.85744       0.16442     -13.11473      -1.21566   
 0.78500    1.85947    -13.09460       96.37638      1.84438       0.16320     -13.01736      -1.20939   
 0.78600    1.84642    -12.99847       95.88888      1.83141       0.16200     -12.92050      -1.20307   
 0.78700    1.83347    -12.90282       95.39669      1.81854       0.16080     -12.82417      -1.19669   
 0.78800    1.82061    -12.80768       94.90004      1.80576       0.15960     -12.72837      -1.19026   
 0.78900    1.80785    -12.71303       94.39916      1.79308       0.15842     -12.63311      -1.18379   
 0.79000    1.79519    -12.61888       93.89426      1.78049       0.15724     -12.53838      -1.17727   
 0.79100    1.78261    -12.52524       93.38558      1.76800       0.15606     -12.44419      -1.17070   
 0.79200    1.77014    -12.43211       92.87331      1.75560       0.15489     -12.35055      -1.16410   
 0.79300    1.75775    -12.33949       92.35766      1.74330       0.15373     -12.25745      -1.15745   
 0.79400    1.74546    -12.24739       91.83884      1.73109       0.15258     -12.16490      -1.15077   
 0.79500    1.73326    -12.15582       91.31706      1.71897       0.15143     -12.07290      -1.14406   
 0.79600    1.72114    -12.06476       90.79249      1.70694       0.15029     -11.98145      -1.13732   
 0.79700    1.70913    -11.97423       90.26533      1.69501       0.14916     -11.89056      -1.13055   
 0.79800    1.69720    -11.88423       89.73577      1.68316       0.14803     -11.80022      -1.12376   
 0.79900    1.68536    -11.79476       89.20398      1.67141       0.14691     -11.71045      -1.11694   
 0.80000    1.67361    -11.70582       88.67015      1.65974       0.14580     -11.62123      -1.11010   
 0.80100    1.66194    -11.61742       88.13445      1.64816       0.14469     -11.53257      -1.10324   
 0.80200    1.65037    -11.52956       87.59704      1.63668       0.14359     -11.44448      -1.09636   
 0.80300    1.63889    -11.44223       87.05808      1.62527       0.14250     -11.35695      -1.08947   
 0.80400    1.62749    -11.35544       86.51775      1.61396       0.14141     -11.26998      -1.08257   
 0.80500    1.61617    -11.26919       85.97619      1.60273       0.14033     -11.18358      -1.07565   
 0.80600    1.60495    -11.18349       85.43356      1.59159       0.13926     -11.09774      -1.06872   
 0.80700    1.59381    -11.09833       84.89000      1.58054       0.13819     -11.01247      -1.06179   
 0.80800    1.58275    -11.01371       84.34566      1.56957       0.13714     -10.92776      -1.05485   
 0.80900    1.57178    -10.92964       83.80068      1.55868       0.13608     -10.84362      -1.04791   
 0.81000    1.56089    -10.84611       83.25520      1.54788       0.13504     -10.76005      -1.04096   
 0.81100    1.55009    -10.76312       82.70934      1.53716       0.13400     -10.67704      -1.03401   
 0.81200    1.53937    -10.68069       82.16324      1.52653       0.13297     -10.59460      -1.02706   
 0.81300    1.52873    -10.59880       81.61703      1.51597       0.13195     -10.51272      -1.02012   
 0.81400    1.51817    -10.51745       81.07083      1.50550       0.13093     -10.43141      -1.01318   
 0.81500    1.50769    -10.43666       80.52474      1.49511       0.12992     -10.35066      -1.00624   
 0.81600    1.49729    -10.35640       79.97890      1.48480       0.12892     -10.27047      -0.99931   
 0.81700    1.48698    -10.27670       79.43342      1.47457       0.12792     -10.19085      -0.99238   
 0.81800    1.47674    -10.19754       78.88839      1.46442       0.12693     -10.11179      -0.98547   
 0.81900    1.46658    -10.11892       78.34393      1.45435       0.12595     -10.03329      -0.97857   
 0.82000    1.45650    -10.04085       77.80014      1.44435       0.12498      -9.95535      -0.97167   
 0.82100    1.44650     -9.96332       77.25712      1.43443       0.12401      -9.87797      -0.96479   
 0.82200    1.43658     -9.88634       76.71496      1.42460       0.12305      -9.80114      -0.95793   
 0.82300    1.42673     -9.80989       76.17376      1.41483       0.12209      -9.72487      -0.95107   
 0.82400    1.41696     -9.73399       75.63361      1.40515       0.12115      -9.64916      -0.94424   
 0.82500    1.40726     -9.65862       75.09459      1.39553       0.12020      -9.57399      -0.93742   
 0.82600    1.39764     -9.58380       74.55680      1.38600       0.11927      -9.49938      -0.93062   
 0.82700    1.38809     -9.50951       74.02030      1.37653       0.11834      -9.42532      -0.92384   
 0.82800    1.37862     -9.43576       73.48519      1.36715       0.11742      -9.35180      -0.91708   
 0.82900    1.36922     -9.36254       72.95153      1.35783       0.11651      -9.27884      -0.91033   
 0.83000    1.35989     -9.28985       72.41940      1.34859       0.11560      -9.20641      -0.90361   
 0.83100    1.35064     -9.21770       71.88888      1.33942       0.11470      -9.13453      -0.89692   
 0.83200    1.34146     -9.14607       71.36003      1.33032       0.11381      -9.06318      -0.89024   
 0.83300    1.33235     -9.07498       70.83291      1.32129       0.11292      -8.99238      -0.88359   
 0.83400    1.32331     -9.00441       70.30759      1.31233       0.11204      -8.92211      -0.87697   
 0.83500    1.31434     -8.93436       69.78413      1.30345       0.11117      -8.85237      -0.87037   
 0.83600    1.30544     -8.86484       69.26260      1.29463       0.11030      -8.78317      -0.86380   
 0.83700    1.29661     -8.79584       68.74304      1.28588       0.10944      -8.71449      -0.85725   
 0.83800    1.28785     -8.72735       68.22552      1.27720       0.10859      -8.64634      -0.85073   
 0.83900    1.27915     -8.65939       67.71008      1.26859       0.10774      -8.57872      -0.84424   
 0.84000    1.27053     -8.59193       67.19678      1.26004       0.10690      -8.51161      -0.83778   
 0.84100    1.26197     -8.52499       66.68566      1.25156       0.10606      -8.44503      -0.83134   
 0.84200    1.25348     -8.45856       66.17677      1.24315       0.10524      -8.37896      -0.82494   
 0.84300    1.24505     -8.39264       65.67016      1.23481       0.10441      -8.31341      -0.81857   
 0.84400    1.23669     -8.32722       65.16586      1.22653       0.10360      -8.24837      -0.81222   
 0.84500    1.22840     -8.26230       64.66392      1.21831       0.10279      -8.18384      -0.80591   
 0.84600    1.22017     -8.19789       64.16438      1.21016       0.10199      -8.11981      -0.79963   
 0.84700    1.21200     -8.13397       63.66727      1.20207       0.10119      -8.05629      -0.79339   
 0.84800    1.20390     -8.07055       63.17263      1.19404       0.10040      -7.99327      -0.78717   
 0.84900    1.19586     -8.00763       62.68050      1.18608       0.09962      -7.93074      -0.78099   
 0.85000    1.18788     -7.94519       62.19089      1.17818       0.09884      -7.86872      -0.77484   
 0.85100    1.17997     -7.88325       61.70386      1.17035       0.09807      -7.80718      -0.76873   
 0.85200    1.17212     -7.82178       61.21942      1.16257       0.09730      -7.74614      -0.76265   
 0.85300    1.16433     -7.76081       60.73760      1.15485       0.09654      -7.68558      -0.75660   
 0.85400    1.15660     -7.70031       60.25842      1.14720       0.09579      -7.62551      -0.75059   
 0.85500    1.14893     -7.64029       59.78192      1.13960       0.09504      -7.56591      -0.74461   
 0.85600    1.14132     -7.58074       59.30811      1.13207       0.09430      -7.50680      -0.73867   
 0.85700    1.13376     -7.52167       58.83702      1.12459       0.09356      -7.44816      -0.73276   
 0.85800    1.12627     -7.46307       58.36866      1.11717       0.09283      -7.38999      -0.72689   
 0.85900    1.11884     -7.40493       57.90306      1.10981       0.09211      -7.33230      -0.72105   
 0.86000    1.11146     -7.34726       57.44023      1.10250       0.09139      -7.27507      -0.71525   
 0.86100    1.10414     -7.29005       56.98019      1.09526       0.09068      -7.21830      -0.70948   
 0.86200    1.09688     -7.23330       56.52295      1.08807       0.08997      -7.16200      -0.70376   
 0.86300    1.08968     -7.17700       56.06854      1.08093       0.08927      -7.10615      -0.69806   
 0.86400    1.08253     -7.12116       55.61695      1.07385       0.08857      -7.05076      -0.69241   
 0.86500    1.07543     -7.06577       55.16821      1.06683       0.08789      -6.99582      -0.68679   
 0.86600    1.06840     -7.01082       54.72232      1.05986       0.08720      -6.94133      -0.68121   
 0.86700    1.06141     -6.95632       54.27929      1.05295       0.08652      -6.88728      -0.67566   
 0.86800    1.05448     -6.90227       53.83913      1.04609       0.08585      -6.83367      -0.67015   
 0.86900    1.04761     -6.84865       53.40186      1.03928       0.08518      -6.78051      -0.66468   
 0.87000    1.04079     -6.79546       52.96747      1.03253       0.08452      -6.72778      -0.65925   
 0.87100    1.03402     -6.74271       52.53597      1.02583       0.08386      -6.67549      -0.65385   
 0.87200    1.02730     -6.69039       52.10737      1.01918       0.08321      -6.62363      -0.64849   
 0.87300    1.02064     -6.63849       51.68168      1.01258       0.08257      -6.57219      -0.64316   
 0.87400    1.01402     -6.58702       51.25888      1.00603       0.08193      -6.52118      -0.63788   
 0.87500    1.00746     -6.53597       50.83900      0.99954       0.08129      -6.47059      -0.63263   
 0.87600    1.00095     -6.48534       50.42202      0.99309       0.08066      -6.42042      -0.62742   
 0.87700    0.99449     -6.43513       50.00795      0.98669       0.08004      -6.37066      -0.62224   
 0.87800    0.98808     -6.38533       49.59679      0.98035       0.07942      -6.32132      -0.61710   
 0.87900    0.98172     -6.33594       49.18854      0.97405       0.07880      -6.27239      -0.61200   
 0.88000    0.97541     -6.28695       48.78320      0.96780       0.07819      -6.22386      -0.60694   
 0.88100    0.96915     -6.23837       48.38076      0.96160       0.07759      -6.17573      -0.60191   
 0.88200    0.96293     -6.19019       47.98122      0.95545       0.07699      -6.12801      -0.59692   
 0.88300    0.95677     -6.14240       47.58459      0.94935       0.07639      -6.08068      -0.59196   
 0.88400    0.95065     -6.09502       47.19085      0.94329       0.07580      -6.03375      -0.58705   
 0.88500    0.94458     -6.04802       46.80000      0.93728       0.07522      -5.98721      -0.58217   
 0.88600    0.93855     -6.00142       46.41204      0.93132       0.07464      -5.94106      -0.57732   
 0.88700    0.93257     -5.95520       46.02696      0.92540       0.07407      -5.89529      -0.57252   
 0.88800    0.92664     -5.90936       45.64476      0.91953       0.07350      -5.84991      -0.56775   
 0.88900    0.92075     -5.86391       45.26542      0.91370       0.07293      -5.80490      -0.56301   
 0.89000    0.91491     -5.81883       44.88895      0.90792       0.07237      -5.76028      -0.55831   
 0.89100    0.90912     -5.77413       44.51532      0.90218       0.07181      -5.71602      -0.55365   
 0.89200    0.90336     -5.72980       44.14455      0.89648       0.07126      -5.67214      -0.54903   
 0.89300    0.89766     -5.68584       43.77661      0.89083       0.07072      -5.62862      -0.54444   
 0.89400    0.89199     -5.64224       43.41150      0.88523       0.07017      -5.58547      -0.53988   
 0.89500    0.88637     -5.59901       43.04920      0.87966       0.06964      -5.54269      -0.53536   
 0.89600    0.88079     -5.55614       42.68972      0.87414       0.06910      -5.50026      -0.53088   
 0.89700    0.87526     -5.51363       42.33304      0.86866       0.06857      -5.45819      -0.52643   
 0.89800    0.86977     -5.47148       41.97915      0.86322       0.06805      -5.41647      -0.52202   
 0.89900    0.86432     -5.42967       41.62803      0.85783       0.06753      -5.37510      -0.51764   
 0.90000    0.85891     -5.38822       41.27968      0.85247       0.06701      -5.33408      -0.51330   
